Trace
Swept SA
A.08.55,N9000A
503 FSA ,01
Segment,0
Number of Points,1501
Sweep Time,0.001
Start Frequency,50000000
Stop Frequency,200000000
Average Count,0
Average Type,LogPower(Video)
RBW,1500000
RBW Filter,Gaussian
RBW Filter BW,3dB
VBW,50000000
Sweep Type,Swept
X Axis Scale,Lin
PreAmp State,Off
PreAmp Band,Low
Trigger Source,Free
Trigger Level,1.2
Trigger Slope,Positive
Trigger Delay,0
Phase Noise Optimization,Fast
Swept If Gain,Low
FFT If Gain,Autorange
RF Coupling,AC
FFT Width,411900
Ext Ref,10000000
Input,RF
RF Calibrator,Off
Attenuation,10
Ref Level Offset,0
External Gain,0
Trace Type,Maxhold
Detector,Peak
Trace Math,Off
Trace Math Oper1,Trace5
Trace Math Oper2,Trace6
Trace Math Offset,0
Trace Name,Trace1
X Axis Units,Hz
Y Axis Units,dBm
DATA
50000000,-61.2420312059038
50100000,-61.0214552150897
50200000,-61.0706009238972
50300000,-61.01538564811
50400000,-60.8153878796104
50500000,-60.45370407864
50600000,-60.7593426298669
50700000,-60.6122602901759
50800000,-60.909079603268
50900000,-60.6767446282743
51000000,-59.9622913019133
51100000,-60.1856169638824
51200000,-60.3949788321381
51300000,-60.3647513977328
51400000,-60.0897901050876
51500000,-60.7379090705479
51600000,-59.242218232749
51700000,-59.2208100364783
51800000,-60.3076860991432
51900000,-60.5199877134439
52000000,-59.8268475459086
52100000,-60.2610999866009
52200000,-60.9165683171735
52300000,-60.5423905955122
52400000,-59.8374914437973
52500000,-60.0108414230027
52600000,-59.7689522733629
52700000,-60.0723860150562
52800000,-60.6190837419667
52900000,-59.9546060983694
53000000,-60.5101230634147
53100000,-60.6834730426201
53200000,-60.9067987045892
53300000,-60.7773548411677
53400000,-60.3362978969845
53500000,-60.5074430666562
53600000,-60.5007336006102
53700000,-60.5528190554626
53800000,-61.2531185132203
53900000,-60.6011347903139
54000000,-60.0380783852664
54100000,-59.95346564903
54200000,-59.9555754211187
54300000,-60.0855641461616
54400000,-60.3294680304451
54500000,-60.1706267065744
54600000,-59.7045819210093
54700000,-59.6794990421825
54800000,-59.8293310530286
54900000,-60.3554505576247
55000000,-60.7757392046035
55100000,-59.8349254327836
55200000,-60.837283796657
55300000,-59.9170482471515
55400000,-59.9669288924702
55500000,-61.0148533200399
55600000,-60.2636531681174
55700000,-60.6516046086022
55800000,-60.4280888717432
55900000,-60.6448001051112
56000000,-60.3191281931911
56100000,-60.0515162656583
56200000,-60.5982139925688
56300000,-60.6010587011688
56400000,-60.1203151853791
56500000,-60.2128221483492
56600000,-60.2575582380893
56700000,-60.2332102957738
56800000,-61.1620750085241
56900000,-61.091426066001
57000000,-60.2167565801918
57100000,-60.5532624648904
57200000,-60.6869258724894
57300000,-60.7029994382915
57400000,-60.3200024784955
57500000,-59.8297047880599
57600000,-60.1566564981125
57700000,-60.1499470320664
57800000,-60.3718028210131
57900000,-60.4106594186633
58000000,-60.5737202867116
58100000,-59.6968459913687
58200000,-60.5257593385917
58300000,-60.5374232853264
58400000,-60.8783387890924
58500000,-60.1109700339228
58600000,-59.766924709222
58700000,-60.484127706738
58800000,-60.6354295906065
58900000,-60.1047103920532
59000000,-60.0164229732606
59100000,-60.6990839547487
59200000,-60.0720880732242
59300000,-60.0675834167119
59400000,-60.1865480940863
59500000,-60.2040915329108
59600000,-60.048189955085
59700000,-59.9951794888315
59800000,-59.8289887998484
59900000,-59.6128224281017
60000000,-59.8802442807447
60100000,-60.8693737874159
60200000,-59.6558985699295
60300000,-59.8241039935563
60400000,-59.2860354298906
60500000,-59.1514470108905
60600000,-59.8502765956258
60700000,-59.9258800188375
60800000,-59.9059416955894
60900000,-60.0734121827049
61000000,-60.1203530819788
61100000,-59.6058024866725
61200000,-60.1385364198696
61300000,-60.1141884775541
61400000,-60.1317319163786
61500000,-60.4726474201446
61600000,-60.3130711597627
61700000,-59.4611847058016
61800000,-60.3929891645969
61900000,-60.1577144435582
62000000,-59.8019101346777
62100000,-60.0311152887366
62200000,-59.7870213295632
62300000,-60.0779611505655
62400000,-60.0778661131205
62500000,-60.4922752680096
62600000,-60.1688081656232
62700000,-59.8041846186079
62800000,-60.7565672997177
62900000,-60.0244754970872
63000000,-60.0949343647204
63100000,-60.5732829960864
63200000,-59.5156143189809
63300000,-59.9212042357351
63400000,-60.2738787236808
63500000,-60.5559993065484
63600000,-60.1149423623651
63700000,-60.6667846448543
63800000,-60.0912343191158
63900000,-60.2226929171811
64000000,-59.2267589070189
64100000,-59.5669394742737
64200000,-60.2496004557618
64300000,-59.9996270044985
64400000,-59.8143279662235
64500000,-60.277977867365
64600000,-60.5160022595587
64700000,-60.2608842527168
64800000,-59.9668146107796
64900000,-59.3309994911203
65000000,-59.9489860596202
65100000,-59.9606500063549
65200000,-60.4456130663221
65300000,-60.5594331881178
65400000,-60.0801595453506
65500000,-59.9014749356767
65600000,-59.5103936742571
65700000,-60.2863915926715
65800000,-60.1253454592671
65900000,-60.2112379936361
66000000,-58.6471980602927
66100000,-59.7083513450646
66200000,-59.8596532289331
66300000,-59.7831247943202
66400000,-60.0027757737331
66500000,-60.0100301014005
66600000,-60.1003322548369
66700000,-60.0884782332123
66800000,-60.1890694978059
66900000,-60.214697238254
67000000,-59.9088686121372
67100000,-59.7654609550023
67200000,-59.694077075968
67300000,-59.3728147831153
67400000,-59.3322982375527
67500000,-59.9877665681253
67600000,-60.0464664515788
67700000,-59.7876737621807
67800000,-59.9933609478803
67900000,-59.8117365921614
68000000,-59.331728012883
68100000,-59.2912114673204
68200000,-59.407971335161
68300000,-59.694501537096
68400000,-59.675298150359
68500000,-59.9383103839346
68600000,-59.6442407419975
68700000,-60.0630595159539
68800000,-59.5124970315973
68900000,-59.7541961063472
69000000,-59.9598832920467
69100000,-59.7922227300413
69200000,-59.8303443911803
69300000,-59.3363720181885
69400000,-59.8419133004701
69500000,-59.8947336918337
69600000,-59.8792049876529
69700000,-59.8445679341801
69800000,-59.5740162606024
69900000,-60.0883767810188
70000000,-59.6091031382515
70100000,-59.2150821307871
70200000,-59.3737333797679
70300000,-59.9968645038464
70400000,-59.4382177178663
70500000,-59.5174958236342
70600000,-59.4762443415603
70700000,-60.0817369893693
70800000,-60.0316662691607
70900000,-60.0345109777606
71000000,-59.6801765419026
71100000,-59.3640588046286
71200000,-59.652058879586
71300000,-59.5226150161644
71400000,-59.578375153573
71500000,-59.8737245936427
71600000,-59.6134620312222
71700000,-59.7309568355741
71800000,-59.9028369417571
71900000,-60.0188618730865
72000000,-59.6101421353974
72100000,-58.9537487934237
72200000,-59.5599763777439
72300000,-60.3124563277989
72400000,-60.047784146311
72500000,-60.0182916484168
72600000,-59.8770888008156
72700000,-59.5771396667886
72800000,-60.0474039965312
72900000,-59.341769908305
73000000,-59.3357953787702
73100000,-59.1357976102706
73200000,-60.2763240382553
73300000,-59.9829893328294
73400000,-58.9650072273302
73500000,-59.4970062240161
73600000,-59.1118044546864
73700000,-59.6055867527883
73800000,-59.2527221899528
73900000,-59.2430729778618
74000000,-59.8257825938226
74100000,-59.8198080642878
74200000,-59.8608694714718
74300000,-60.1606285306089
74400000,-59.9047755872557
74500000,-59.3961044840393
74600000,-59.1049745881471
74700000,-59.1724937097353
74800000,-58.7681835911136
74900000,-59.3692666198552
75000000,-59.6543269487677
75100000,-60.0128809288032
75200000,-59.6063660006478
75300000,-58.5810345300363
75400000,-59.5495858143931
75500000,-59.8684532228222
75600000,-58.9305791970472
75700000,-59.6117703055129
75800000,-59.9820832697281
75900000,-59.5476407541459
76000000,-59.7856651463396
76100000,-60.2030140472736
76200000,-59.1379960050557
76300000,-59.3870444449179
76400000,-58.950397119802
76500000,-60.2217422467858
76600000,-59.5881319366602
76700000,-59.4586880732386
76800000,-59.40861735303
76900000,-59.4555582523038
77000000,-59.452523468814
77100000,-59.5935362415253
77200000,-59.681633585428
77300000,-59.7550321991061
77400000,-59.0582173490146
77500000,-59.8018780609349
77600000,-60.13029964401
77700000,-59.8487239227638
77800000,-59.2136437396157
77900000,-59.1650428924295
78000000,-58.9371175365031
78100000,-60.2393299969586
78200000,-59.8658872118085
78300000,-59.3336981402327
78400000,-59.9862267247604
78500000,-59.2497253030625
78600000,-59.5759420766039
78700000,-59.5413050231311
78800000,-59.142139460088
78900000,-59.1743816291372
79000000,-59.2301417665458
79100000,-60.164885971386
79200000,-60.0236831237848
79300000,-59.3099647339351
79400000,-59.5266759673031
79500000,-59.8675914710691
79600000,-59.6911116709288
79700000,-59.5940050140015
79800000,-59.6674036276796
79900000,-59.2645633820803
80000000,-59.4790698059147
80100000,-60.21979077179
80200000,-59.7581556052923
80300000,-59.8227349808356
80400000,-58.9730533364083
80500000,-59.3933419833872
80600000,-59.1646816909495
80700000,-59.4166698768566
80800000,-59.3202981564405
80900000,-58.8946748789931
81000000,-59.5560227016556
81100000,-59.9358898405168
81200000,-59.7042898020342
81300000,-58.7575965381244
81400000,-58.8045374373982
81500000,-58.4722510968771
81600000,-58.8807807596763
81700000,-59.4862734074853
81800000,-59.5133710209558
81900000,-59.4919628246852
82000000,-59.2802060720059
82100000,-60.3149016423734
82200000,-60.1090243817839
82300000,-59.5680160720733
82400000,-59.5039815581514
82500000,-58.4779151510287
82600000,-58.9415650521701
82700000,-59.2876251115147
82800000,-59.2647470422216
82900000,-59.0970864802161
83000000,-59.1087504269509
83100000,-59.5319788199747
83200000,-59.5539318778667
83300000,-58.4977330737835
83400000,-58.4586864012433
83500000,-59.3081779707808
83600000,-59.3257214096054
83700000,-59.266831451262
83800000,-59.3255313347155
83900000,-59.0549796611377
84000000,-59.667821674059
84100000,-59.6662567635916
84200000,-59.6308847736076
84300000,-59.5345130531914
84400000,-59.4601894281122
84500000,-59.4483354064876
84600000,-59.5614205917721
84700000,-59.7604933488706
84800000,-59.8096390576781
84900000,-59.2392332875183
85000000,-59.0825967731813
85100000,-59.103814894562
85200000,-59.103719857117
85300000,-59.6004419012639
85400000,-59.0564938455084
85500000,-58.6742318222236
85600000,-59.7030479005013
85700000,-60.1218666744577
85800000,-59.5970269679942
85900000,-59.6704255816723
86000000,-58.7854669847059
86100000,-59.0301058055007
86200000,-58.4854228132339
86300000,-59.1849873344804
86400000,-59.2841087260516
86500000,-58.9231598615925
86600000,-58.7025838707784
86700000,-59.1640289623861
86800000,-59.6872087209373
86900000,-58.5406127259728
87000000,-58.6669267684595
87100000,-58.760903604452
87200000,-59.6838888251126
87300000,-59.6448421525724
87400000,-59.4014831299102
87500000,-57.9315150700043
87600000,-59.391003943863
87700000,-58.5663101408175
87800000,-58.698503675394
87900000,-59.5038990542577
88000000,-59.0922395705237
88100000,-58.8790129448219
88200000,-59.5249271007485
88300000,-59.4917599202982
88400000,-59.5210623433024
88500000,-59.576822480711
88600000,-59.1188619967695
88700000,-58.3977942418074
88800000,-59.2267075890305
88900000,-59.4441537589097
89000000,-59.4675766898241
89100000,-59.0059415233265
89200000,-58.911774612444
89300000,-59.214473417626
89400000,-58.5838028535453
89500000,-58.5469609905388
89600000,-58.8290815734064
89700000,-59.8843553660884
89800000,-59.1140468648739
89900000,-58.9669645251829
90000000,-59.330663060797
90100000,-59.2313515943359
90200000,-58.8520293170961
90300000,-59.1488486301882
90400000,-58.3902991131534
90500000,-58.662865521375
90600000,-59.0456724062811
90700000,-59.8018270388923
90800000,-59.1248554746041
90900000,-59.4010965653818
91000000,-59.3245681307689
91100000,-58.9246676312145
91200000,-59.0605358483472
91300000,-58.9332967944594
91400000,-59.3006700126297
91500000,-59.327032689589
91600000,-59.065300254146
91700000,-59.3650593132831
91800000,-58.956339575594
91900000,-59.3340019049215
92000000,-59.1678112159385
92100000,-59.0471865906518
92200000,-59.079428759701
92300000,-59.2821761993556
92400000,-59.4195142895108
92500000,-59.1783600763822
92600000,-59.3054090553801
92700000,-58.765870618692
92800000,-58.4938490720918
92900000,-58.1586229855258
93000000,-58.2114433768894
93100000,-58.9521643427648
93200000,-58.8491781937475
93300000,-58.9813717283241
93400000,-59.3105282479104
93500000,-58.8871097799967
93600000,-58.9340506792705
93700000,-58.7516913870404
93800000,-58.4458627609235
93900000,-58.7970673758467
94000000,-58.4368534478989
94100000,-59.0394063496629
94200000,-58.5469038496935
94300000,-58.2594486363575
94400000,-58.6598939975331
94500000,-59.0625441682425
94600000,-58.9037028443717
94700000,-59.0336915694146
94800000,-58.7624049593256
94900000,-58.9614777164241
95000000,-59.1326228860958
95100000,-58.7481560532774
95200000,-58.5827003008056
95300000,-59.0073985668518
95400000,-59.0036288468507
95500000,-58.0356224241152
95600000,-58.9674268829105
95700000,-59.0239219568303
95800000,-58.7055994100226
95900000,-59.1876227239448
96000000,-58.8994325740975
96100000,-58.8670003301584
96200000,-58.406100100172
96300000,-58.2648972525708
96400000,-58.5698008672865
96500000,-58.4697544643142
96600000,-58.9370790480118
96700000,-58.9369840105668
96800000,-58.7957811629656
96900000,-59.2836839689777
97000000,-59.0417948193379
97100000,-59.0865309090781
97200000,-58.8446417594383
97300000,-58.2573324495202
97400000,-58.6717416044092
97500000,-58.9935487588832
97600000,-58.6208409102444
97700000,-58.6303000474455
97800000,-58.7713128201567
97900000,-59.186456911557
98000000,-59.1378560643708
98100000,-58.7614735331759
98200000,-58.8260529087192
98300000,-58.7193920771459
98400000,-58.8295375163855
98500000,-59.1087183532081
98600000,-59.1585989985268
98700000,-59.1879014215311
98800000,-58.3088223166545
98900000,-58.5468467088482
99000000,-59.1339659438764
99100000,-59.046413461595
99200000,-58.8640541693649
99300000,-58.8610193858751
99400000,-58.452299648186
99500000,-58.2229044192371
99600000,-58.2139901436574
99700000,-58.9958675541617
99800000,-59.1104226124687
99900000,-58.5414867153313
100000000,-59.0044016799616
100100000,-59.0043066425166
100200000,-58.87780252514
100300000,-58.4911308827879
100400000,-57.9104360014708
100500000,-59.0303842071411
100600000,-58.924458312079
100700000,-58.8538093695559
100800000,-58.88899128465
100900000,-58.9124142155644
101000000,-59.006391051557
101100000,-59.0004165220222
101200000,-58.7915995153878
101300000,-59.0906236380136
101400000,-58.871517520222
101500000,-58.8295311016369
101600000,-59.2417354469923
101700000,-58.2237533414931
101800000,-59.6464953897904
101900000,-58.4756464899553
102000000,-58.4498286746172
102100000,-58.8436596071918
102200000,-58.4114219011434
102300000,-58.7905541034933
102400000,-58.3891837309166
102500000,-58.1700776131249
102600000,-58.6337275142664
102700000,-58.2345619512233
102800000,-58.7900789162686
102900000,-58.8487787997221
103000000,-58.8369247780974
103100000,-58.9749978047638
103200000,-59.2806363559907
103300000,-59.0189039205477
103400000,-58.9217972636204
103500000,-58.8063171939122
103600000,-58.4211154245825
103700000,-59.0391019930824
103800000,-58.0336138082741
103900000,-58.2628189623331
104000000,-58.4391086875835
104100000,-58.6536151114178
104200000,-58.3624852155256
104300000,-58.1301502405318
104400000,-58.9032084129013
104500000,-58.6921865967332
104600000,-58.2827319225329
104700000,-58.6354064104786
104800000,-57.9033146078481
104900000,-58.4323738584891
105000000,-58.0736298035636
105100000,-58.3947020215264
105200000,-58.5996542707148
105300000,-58.8589918217342
105400000,-58.9485590386593
105500000,-58.1260700451475
105600000,-57.9878069435912
105700000,-58.7807084017639
105800000,-58.1933990918458
105900000,-58.2785566897036
106000000,-58.9575429886356
106100000,-58.116680582343
106200000,-58.1871394499762
106300000,-58.5633319062812
106400000,-58.5735259799935
106500000,-58.5352142439646
106600000,-57.7399179013683
106700000,-58.4424221686596
106800000,-58.3276770354627
106900000,-58.5274847290725
107000000,-58.5126909614029
107100000,-58.9498831481401
107200000,-58.7153433636126
107300000,-58.3213223561481
107400000,-58.2830106201192
107500000,-58.7268172354574
107600000,-58.7943363570457
107700000,-58.2452437457116
107800000,-58.2326547875757
107900000,-57.8775854152064
108000000,-58.0795979183499
108100000,-58.283815231027
108200000,-57.8030717152373
108300000,-58.3291912198334
108400000,-58.6811307712678
108500000,-57.8321840633517
108600000,-58.6375794422153
108700000,-57.8172952582372
108800000,-58.4874623190344
108900000,-58.390355662107
109000000,-58.3123573544717
109100000,-58.338720031431
109200000,-58.0887465801677
109300000,-58.3958550044171
109400000,-58.2811098712202
109500000,-58.4191828978866
109600000,-58.5337379561936
109700000,-58.0956207580552
109800000,-58.1513808954638
109900000,-58.2512372235462
110000000,-57.4544710079274
110100000,-57.7160133684805
110200000,-58.2186149047172
110300000,-58.1714839305535
110400000,-58.5829533393976
110500000,-58.609316016357
110600000,-58.4908962006039
110700000,-57.8080451442259
110800000,-58.0534189015319
110900000,-57.9210352920654
111000000,-57.7952661112001
111100000,-57.077138102283
111200000,-57.9854245927189
111300000,-57.8986070469487
111400000,-58.1087038517157
111500000,-58.4290411331672
111600000,-58.4054281273629
111700000,-58.1848521365488
111800000,-58.0554082731273
111900000,-57.8377720283581
112000000,-58.4520839143018
112100000,-58.3402785271499
112200000,-58.2666898385819
112300000,-58.1659084990983
112400000,-58.4634627487017
112500000,-57.8665992641376
112600000,-57.7959503216146
112700000,-58.3514672866598
112800000,-58.2778785980919
112900000,-58.0609772898339
113000000,-58.2894475073816
113100000,-57.7425597055812
113200000,-58.204004797189
113300000,-58.6779438094877
113400000,-58.5565842476897
113500000,-58.2213581611237
113600000,-58.3513468861665
113700000,-58.4063720870639
113800000,-58.4680117165623
113900000,-57.5999566593541
114000000,-58.0974136400122
114100000,-57.5696341875038
114200000,-57.458563736863
114300000,-58.0206951305094
114400000,-58.2322618082988
114500000,-57.9558306426312
114600000,-57.6632308737165
114700000,-57.62638901071
114800000,-57.9202685777573
114900000,-58.2876417959276
115000000,-57.6878385653185
115100000,-57.784755147356
115200000,-58.313814397997
115300000,-58.3489963130911
115400000,-57.8109277494255
115500000,-57.9225430616875
115600000,-58.3883977723627
115700000,-58.1604724164363
115800000,-57.9994262830319
115900000,-57.9427411342222
116000000,-57.9250076205077
116100000,-58.3761636009583
116200000,-57.8278059261354
116300000,-57.7395185073428
116400000,-57.4917498656132
116500000,-57.8921952267888
116600000,-57.8737267765631
116700000,-57.8537884533149
116800000,-57.4707914935189
116900000,-57.442033932136
117000000,-58.4914282327281
117100000,-58.1767803684765
117200000,-57.7269041861585
117300000,-57.4409188458449
117400000,-57.9089783660538
117500000,-58.0588103768999
117600000,-58.243919340285
117700000,-57.6117789031818
117800000,-58.0644047566549
117900000,-57.8702864802451
118000000,-57.834914490261
118100000,-57.4526524669762
118200000,-57.4672561597559
118300000,-57.3179690105312
118400000,-57.805136880032
118500000,-57.6492353022062
118600000,-57.3610451523589
118700000,-58.1252840865936
118800000,-57.6283719675569
118900000,-58.0486606145358
119000000,-57.7928076711826
119100000,-58.3600836204076
119200000,-57.8631715013708
119300000,-57.8924739243751
119400000,-58.2098714597817
119500000,-57.6225621498636
119600000,-57.2843963172527
119700000,-57.9009130127301
119800000,-57.4142900048506
119900000,-58.2329142409163
120000000,-57.2627030086472
120100000,-57.5154261310655
120200000,-57.6358606814624
120300000,-58.1972571385975
120400000,-57.9516933064016
120500000,-57.5466482512686
120600000,-57.391481609954
120700000,-58.0116729879876
120800000,-57.8998676008356
120900000,-58.2496023427364
121000000,-57.890858287811
121100000,-57.6805714081541
121200000,-57.7142834502257
121300000,-58.1985115736817
121400000,-57.7795027248353
121500000,-57.6177216549197
121600000,-57.6815660939518
121700000,-57.6079774053838
121800000,-57.5608464312201
121900000,-57.831208029908
122000000,-57.8208238813058
122100000,-58.1014745911509
122200000,-57.7758026792308
122300000,-57.0635541624035
122400000,-57.1575309983961
122500000,-57.7012889792617
122600000,-57.6600374971878
122700000,-57.7157976345964
122800000,-57.6936545018145
122900000,-57.6862100992573
123000000,-58.1594141750448
123100000,-57.8653445331076
123200000,-57.815273812899
123300000,-58.15324957062
123400000,-57.818023484054
123500000,-57.1182688879177
123600000,-57.5767742334805
123700000,-58.0088218646391
123800000,-57.8793780012176
123900000,-57.7080427566559
124000000,-57.3816359082246
124100000,-57.2926135529208
124200000,-58.1935506782444
124300000,-57.9347579888463
124400000,-58.1874811112647
124500000,-57.9639653744056
124600000,-57.4229570646951
124700000,-57.444910122587
124800000,-57.0516240516338
124900000,-57.0287459823407
125000000,-57.5313475185774
125100000,-57.8134681014449
125200000,-57.5311574436875
125300000,-57.5927970731859
125400000,-57.6941232742907
125500000,-57.3441984575001
125600000,-57.6101504371206
125700000,-57.5042245420584
125800000,-57.4570935678947
125900000,-56.8778685596002
126000000,-57.4907105725214
126100000,-57.9389268069271
126200000,-57.6404475459225
126300000,-57.4801363490293
126400000,-57.4036079144164
126500000,-57.4299705913758
126600000,-57.1564791717531
126700000,-57.8259112960391
126800000,-57.2533007163456
126900000,-57.3678557746526
127000000,-57.7999034058112
127100000,-57.9850123691963
127200000,-57.4653172183114
127300000,-57.575462657551
127400000,-57.2556702377208
127500000,-57.4672369155102
127600000,-57.3348533060438
127700000,-57.3626858560256
127800000,-57.443433834816
127900000,-57.4021823527422
128000000,-57.449123252016
128100000,-57.5048833894245
128200000,-57.9751477191671
128300000,-57.4076816950522
128400000,-57.3752494511131
128500000,-57.6007799226159
128600000,-57.2839272488306
128700000,-57.6895171655849
128800000,-57.3748693013333
128900000,-56.9396918492399
129000000,-57.3261734167022
129100000,-57.5274509833344
129200000,-57.4751754535921
129300000,-57.1245157002902
129400000,-57.5624428235386
129500000,-57.2139878797704
129600000,-57.2094832232581
129700000,-57.2446651383522
129800000,-57.5847099723355
129900000,-57.3712118800909
130000000,-57.4252306779342
130100000,-56.0953640251306
130200000,-55.7047462336794
130300000,-56.4319668758098
130400000,-57.0592361524129
130500000,-56.9456894256956
130600000,-57.9845231485878
130700000,-57.5240863885697
130800000,-57.6956950282099
130900000,-57.2367281412144
131000000,-56.8600741434766
131100000,-57.5931742776968
131200000,-57.5913379006866
131300000,-57.3785747449533
131400000,-57.1467032399279
131500000,-57.62404546824
131600000,-57.3635114392766
131700000,-57.8937690963973
131800000,-57.3363207168968
131900000,-57.5762784520814
132000000,-57.570767392515
132100000,-57.1404630294575
132200000,-57.1202532396665
132300000,-57.7827994688086
132400000,-57.534024424025
132500000,-57.0735876640069
132600000,-56.9188844926608
132700000,-57.2779019426647
132800000,-57.1944876129079
132900000,-57.5748182217375
133000000,-56.9673941594734
133100000,-57.2036772121019
133200000,-56.7425055155726
133300000,-56.8972106154545
133400000,-56.5073277605146
133500000,-56.6906953843344
133600000,-57.8970946317871
133700000,-57.2602731090738
133800000,-57.3966047961749
133900000,-56.8068192101803
134000000,-56.8490790238439
134100000,-56.7325925510817
134200000,-56.7425151582512
134300000,-56.2321027154695
134400000,-56.9534438655101
134500000,-57.5498458086414
134600000,-57.4701061614408
134700000,-57.5006069909247
134800000,-56.9813753100082
134900000,-57.0353941078516
135000000,-57.0217987466616
135100000,-56.3144233188702
135200000,-57.3767750101217
135300000,-57.4219745698302
135400000,-57.3907407323708
135500000,-57.1647487194353
135600000,-57.0783946436336
135700000,-57.2794007437229
135800000,-57.3069618271619
135900000,-57.3874383394095
136000000,-56.9417003096161
136100000,-56.8546112973032
136200000,-56.9615455239551
136300000,-56.6716140345425
136400000,-56.9872702303838
136500000,-57.0177710598678
136600000,-57.4774748119103
136700000,-57.1537362429811
136800000,-56.5183845932902
136900000,-57.0736300917927
137000000,-56.9909506985471
137100000,-56.9597168610877
137200000,-57.2614092632157
137300000,-57.2911751561884
137400000,-56.7910518245639
137500000,-57.0905394171582
137600000,-57.1827749135854
137700000,-56.7671692807525
137800000,-57.4745466370797
137900000,-57.3418915610704
138000000,-57.3047782315211
138100000,-57.2948575528874
138200000,-57.1063473020246
138300000,-57.0317522104026
138400000,-56.9799401506287
138500000,-57.0751153931009
138600000,-56.430209568764
138700000,-56.8832988922055
138800000,-57.3694603586523
138900000,-57.1368539171157
139000000,-56.5955741408623
139100000,-56.784821256772
139200000,-57.6634388202159
139300000,-57.066303869109
139400000,-56.3339405999357
139500000,-56.0131417770515
139600000,-56.9902408330002
139700000,-56.6179964543299
139800000,-56.5007750450565
139900000,-56.7495520183758
140000000,-56.9534978645102
140100000,-56.8495053124389
140200000,-56.9615840946694
140300000,-57.1949274012529
140400000,-57.3871142632076
140500000,-56.8384851218419
140600000,-56.9586482056959
140700000,-56.8789085584953
140800000,-57.0799146585847
140900000,-57.4087997116282
141000000,-56.5529671085681
141100000,-56.3482882544583
141200000,-56.7580163237372
141300000,-56.4386873738754
141400000,-57.0688963965234
141500000,-57.2052280836245
141600000,-57.0358261820537
141700000,-56.5357028504292
141800000,-56.1619885987364
141900000,-57.0391362891578
142000000,-57.1313717855851
142100000,-56.814247645257
142200000,-56.1921248527683
142300000,-56.3291914763806
142400000,-56.868268371636
142500000,-56.8502633913787
142600000,-56.7080541407235
142700000,-56.8465906373583
142800000,-56.9108985463588
142900000,-56.5452685962895
143000000,-56.5279985525435
143100000,-56.4475239688316
143200000,-56.374398750232
143300000,-56.9164153915324
143400000,-57.1291804758014
143500000,-56.6841773825193
143600000,-56.9410386574622
143700000,-56.3953492621414
143800000,-56.9601489352899
143900000,-57.0053484949984
144000000,-57.197535356953
144100000,-56.9193628517201
144200000,-56.8094908075591
144300000,-57.1354361145576
144400000,-56.7698061644883
144500000,-57.1207393128687
144600000,-56.9748553796573
144700000,-56.8377906845807
144800000,-56.7124849736838
144900000,-56.8252986924255
145000000,-56.7146917117532
145100000,-56.6716988901141
145200000,-56.7286574340023
145300000,-56.7444595332616
145400000,-56.6573705209486
145500000,-56.6768473027641
145600000,-56.7801068468599
145700000,-56.3373085631114
145800000,-56.4824594883472
145900000,-56.7128630488858
146000000,-56.6698702272467
146100000,-56.6268774056076
146200000,-56.3839818529138
146300000,-56.5114943018801
146400000,-57.1270045943035
146500000,-56.9789158515584
146600000,-56.8043693944091
146700000,-56.8716170494545
146800000,-56.6022637823564
146900000,-56.8179686126704
147000000,-56.4045677893711
147100000,-55.9676489977125
147200000,-56.7036888779776
147300000,-56.6401178340241
147400000,-56.8999188550119
147500000,-56.8157695887439
147600000,-56.5221634167751
147700000,-56.5533991827703
147800000,-56.7103090921859
147900000,-56.6261598259178
148000000,-56.6978171000307
148100000,-56.3895121978373
148200000,-56.6324096790669
148300000,-56.6048505241636
148400000,-56.3979668605201
148500000,-56.0036743865128
148600000,-56.3957639795221
148700000,-56.8819254459689
148800000,-56.8389326243298
148900000,-56.5284229126028
149000000,-56.4766108528289
149100000,-56.6276412701546
149200000,-56.7669127033006
149300000,-56.7533173421107
149400000,-56.6787222504887
149500000,-56.6335246193159
149600000,-56.600820908834
149700000,-56.6695384369019
149800000,-55.7923926750162
149900000,-56.756997810274
150000000,-56.7874986397579
150100000,-56.51226588057
150200000,-56.5486462021438
150300000,-56.6085444920769
150400000,-56.7323822584871
150500000,-56.689389436848
150600000,-56.9565398229481
150700000,-56.4556815548124
150800000,-56.4494355587348
150900000,-56.2660698634507
151000000,-55.8100427225
151100000,-56.4615649039737
151200000,-56.3943191774639
151300000,-56.4578921499533
151400000,-56.8499817429626
151500000,-56.4336411736184
151600000,-56.5670331146746
151700000,-56.7812680719661
151800000,-56.6838899484959
151900000,-56.6849933175306
152000000,-56.1819302398612
152100000,-56.4931768166352
152200000,-56.7132912660166
152300000,-55.7391338846484
152400000,-56.3730175898526
152500000,-56.9532509297369
152600000,-56.8205958537276
152700000,-56.3381109983727
152800000,-56.3627323357668
152900000,-56.3167997680827
153000000,-56.2150120255452
153100000,-56.0338511397947
153200000,-56.0731712074134
153300000,-56.7592354049149
153400000,-56.5398578205805
153500000,-56.4674675384921
153600000,-56.6331966860425
153700000,-56.6791311822622
153800000,-56.6354034241119
153900000,-56.1235211083077
154000000,-56.158431556859
154100000,-56.2124503547023
154200000,-56.4575526454655
154300000,-56.5968240786116
154400000,-56.5009158281639
154500000,-56.3785498633118
154600000,-56.5795559634012
154700000,-56.5865388245258
154800000,-56.381859970416
154900000,-56.5858058165503
155000000,-56.8250286152236
155100000,-56.3653267917168
155200000,-56.3215990335665
155300000,-56.5020269113414
155400000,-56.6471778365773
155500000,-56.4630772047819
155600000,-55.3639806165046
155700000,-56.3697421963914
155800000,-56.450218708639
155900000,-56.4454425855838
156000000,-56.4597748118207
156100000,-56.5608295463827
156200000,-56.4002468829467
156300000,-56.1955680288369
156400000,-56.3818753987017
156500000,-56.1661724969234
156600000,-56.4899129943883
156700000,-56.4851368713331
156800000,-56.4076020336662
156900000,-56.546138530301
157000000,-56.0144129286936
157100000,-56.0191909802845
157200000,-56.6993756856961
157300000,-56.9503574685492
157400000,-56.9727739964096
157500000,-56.3851932199487
157600000,-55.9931055554751
157700000,-56.5093994188823
157800000,-56.2797327233907
157900000,-56.2690771082457
158000000,-56.2429878263649
158100000,-56.0390439087663
158200000,-56.1312794051936
158300000,-56.3146470290134
158400000,-56.3774850649915
158500000,-56.8989234839774
158600000,-56.6795458996429
158700000,-56.7975041739633
158800000,-56.0614662222338
158900000,-56.0772683214931
159000000,-55.8990471817876
159100000,-56.3763894100996
159200000,-56.1915538417931
159300000,-56.1757536710695
159400000,-56.9382512657389
159500000,-56.8879090789875
159600000,-56.1202688572751
159700000,-56.5740931172278
159800000,-55.811597451094
159900000,-56.1412174406488
160000000,-55.8718641735507
160100000,-56.4256397990307
160200000,-56.5972484386709
160300000,-56.3131964413481
160400000,-55.8321814590157
160500000,-56.240439655272
160600000,-56.4458553744288
160700000,-55.9949727890568
160800000,-56.2386052067975
160900000,-56.3403948778708
161000000,-56.3209200245911
161100000,-56.0398077733133
161200000,-56.2907895561663
161300000,-56.5094341325253
161400000,-56.3187190721288
161500000,-56.6674474109755
161600000,-56.1981914128227
161700000,-56.1111024005098
161800000,-56.3356264689586
161900000,-55.8546114866261
162000000,-56.2026048889616
162100000,-56.3212980997931
162200000,-56.5252439459275
162300000,-56.0618674398645
162400000,-56.8743407172976
162500000,-55.2762222378948
162600000,-55.3184820515585
162700000,-56.4896043464721
162800000,-56.2290703175087
162900000,-55.7686335574907
163000000,-56.1283859440059
163100000,-56.2500189008824
163200000,-56.403989064253
163300000,-56.3918635760856
163400000,-56.2739072303009
163500000,-55.8134704702829
163600000,-56.1291266661243
163700000,-55.7502678588528
163800000,-55.7756241327581
163900000,-55.9001968356795
164000000,-56.286406936599
164100000,-56.0376318918153
164200000,-56.3885650401958
164300000,-56.1096575984516
164400000,-55.9975807447569
164500000,-55.6694325567603
164600000,-55.5904278460709
164700000,-55.7951086287165
164800000,-55.9130669030368
164900000,-55.5996174452649
165000000,-56.0093455145437
165100000,-55.7510162951141
165200000,-55.9939137763436
165300000,-55.7275002552904
165400000,-55.9549640697841
165500000,-56.0148623597172
165600000,-55.6154253301313
165700000,-55.9759126531577
165800000,-55.7594748148682
165900000,-56.0545527883951
166000000,-56.5289552706622
166100000,-56.2169756859128
166200000,-55.6374792110754
166300000,-56.3382421388015
166400000,-56.2070569358147
166500000,-56.1140884314119
166600000,-55.0950999228587
166700000,-55.1373597365223
166800000,-55.9145560614164
166900000,-55.8304067951484
167000000,-55.8337149737168
167100000,-55.6944454691065
167200000,-55.6396936632877
167300000,-56.0112050339825
167400000,-55.3979014796286
167500000,-55.9869540576477
167600000,-55.9527804741433
167700000,-55.7348727628313
167800000,-55.716867782574
167900000,-55.8289465648045
168000000,-55.9593987598158
168100000,-55.8656953189018
168200000,-55.3920297016816
168300000,-56.0339977085093
168400000,-55.8697403625171
168500000,-55.8333619694791
168600000,-56.061560720484
168700000,-55.6768224211227
168800000,-55.730841218966
168900000,-56.4992183057253
169000000,-56.2651419911663
169100000,-55.6341999605428
169200000,-55.9939523470579
169300000,-55.9127428268348
169400000,-55.8697500051957
169500000,-56.2383216298457
169600000,-56.0689197282749
169700000,-55.8877588425244
169800000,-55.9006211957388
169900000,-55.9840374540313
170000000,-56.0645139662789
170100000,-56.1067737799425
170200000,-55.778625591946
170300000,-55.7856084530705
170400000,-55.8043502983748
170500000,-55.8877665566673
170600000,-56.1593265618348
170700000,-56.1633696769144
170800000,-55.9528113307148
170900000,-55.7716504449643
171000000,-55.3626592407324
171100000,-55.7584235162979
171200000,-55.7139608216363
171300000,-55.5438239835543
171400000,-55.3178319706188
171500000,-55.8782220246999
171600000,-55.976337013217
171700000,-55.7216824763435
171800000,-55.3347393674485
171900000,-55.8921896754847
172000000,-55.6191617258304
172100000,-55.7848908733808
172200000,-55.8300904330893
172300000,-56.1751440893799
172400000,-55.9388629652871
172500000,-56.2567239706622
172600000,-55.6434204163082
172700000,-55.6709814997472
172800000,-55.9454812509596
172900000,-55.9995000488029
173000000,-56.1115788310335
173100000,-55.4402152922923
173200000,-55.2267172000477
173300000,-55.7310143461082
173400000,-55.6500642960621
173500000,-55.1972363713334
173600000,-56.2929196757673
173700000,-55.5571411942149
173800000,-55.6150941447914
173900000,-55.0821581403386
174000000,-55.0901354081514
174100000,-55.0304985169311
174200000,-55.0414155307888
174300000,-55.6020650550469
174400000,-56.1707988809286
174500000,-56.0927885769275
174600000,-56.0904767335831
174700000,-55.6516126025678
174800000,-55.7242642833689
174900000,-55.5867241219581
175000000,-55.9371818040043
175100000,-55.5041971650788
175200000,-55.6319690842222
175300000,-55.2202976041225
175400000,-56.1160781775017
175500000,-56.0277787623433
175600000,-55.8145401402758
175700000,-55.6637711216628
175800000,-55.4740504679546
175900000,-55.4563049578744
176000000,-55.3856440189856
176100000,-55.3870068581973
176200000,-55.7359946672211
176300000,-55.817465586157
176400000,-56.0165263468897
176500000,-55.4468435168754
176600000,-55.1387980848591
176700000,-55.6729898947129
176800000,-55.7956172582777
176900000,-55.709522652653
177000000,-55.682957904438
177100000,-55.7725131249974
177200000,-55.3542272162966
177300000,-55.3548551189971
177400000,-55.5789037211117
177500000,-55.4222552104089
177600000,-55.5625210502432
177700000,-55.7292446044818
177800000,-55.6740173323288
177900000,-55.5129592025586
178000000,-55.3651299299906
178100000,-55.1438070062995
178200000,-55.9749131666905
178300000,-55.6595183695619
178400000,-55.56313465278
178500000,-55.4520522057735
178600000,-56.1596890322777
178700000,-55.7825595682057
178800000,-55.925765154085
178900000,-55.4744071023788
179000000,-55.4831193067028
179100000,-55.5616504795938
179200000,-55.5321459853338
179300000,-55.4739789671359
179400000,-55.29160767854
179500000,-55.5788608206204
179600000,-55.4486700243219
179700000,-55.2905516405967
179800000,-54.9413497639515
179900000,-55.5137582723893
180000000,-55.498952508354
180100000,-55.5120743317454
180200000,-55.4436182023903
180300000,-55.3310658823613
180400000,-55.3655008645784
180500000,-55.3029242273131
180600000,-55.9128144978237
180700000,-55.7892381301263
180800000,-55.538517745986
180900000,-55.3759897431933
181000000,-55.3891115665848
181100000,-54.4549002270001
181200000,-55.4351984991709
181300000,-55.7518491017005
181400000,-55.8274405285465
181500000,-55.5730454618501
181600000,-56.0624061445189
181700000,-55.1517127732936
181800000,-55.136172072747
181900000,-55.6328821205281
182000000,-55.5754500388414
182100000,-55.8524140697646
182200000,-55.5678866061077
182300000,-55.3766960793771
182400000,-55.3001556483984
182500000,-55.2184706618411
182600000,-55.6674098363922
182700000,-55.3145332771909
182800000,-55.6627861497034
182900000,-55.4855594166862
183000000,-55.493536684499
183100000,-55.2964666656785
183200000,-55.3941061878614
183300000,-55.3616619475566
183400000,-55.5607227082893
183500000,-55.5892781984166
183600000,-55.5296413071962
183700000,-55.4332575904143
183800000,-55.3927290484859
183900000,-55.4506819990624
184000000,-54.7325419937796
184100000,-54.8463501192096
184200000,-55.210036658458
184300000,-55.4105672922132
184400000,-55.1583770350504
184500000,-55.4566542247993
184600000,-55.9430751614231
184700000,-55.5468373480592
184800000,-55.2843579797392
184900000,-55.8450075039973
185000000,-55.275324673983
185100000,-55.1701217190663
185200000,-55.4309171467424
185300000,-55.6343875265426
185400000,-55.1668608715893
185500000,-55.9281480634133
185600000,-55.7803187908453
185700000,-55.4252374221103
185800000,-55.6287078019104
185900000,-55.231000115524
186000000,-55.2183991610224
186100000,-55.608543414675
186200000,-55.5797738569263
186300000,-55.5186670926835
186400000,-55.0996462474714
186500000,-54.8143838473033
186600000,-55.3478407206459
186700000,-55.3036374961614
186800000,-55.3968673992769
186900000,-55.4129289687133
187000000,-55.5215925385647
187100000,-55.697135330938
187200000,-55.5934022490438
187300000,-55.6542949456653
187400000,-55.0831422426285
187500000,-55.3468774163495
187600000,-55.2578430646799
187700000,-55.0857608872413
187800000,-55.6383261098759
187900000,-55.5728097265656
188000000,-54.9781390551695
188100000,-55.3506448325526
188200000,-55.5791030537346
188300000,-55.0461670492818
188400000,-55.1335174603075
188500000,-55.2267473634231
188600000,-55.5154703785259
188700000,-55.5043392970468
188800000,-55.6357858987463
188900000,-55.3027526253482
189000000,-55.5517890688446
189100000,-55.1834788429074
189200000,-55.2120343330347
189300000,-54.8327000594291
189400000,-55.3602774406818
189500000,-55.7217591703965
189600000,-55.5834840724745
189700000,-55.4635823873332
189800000,-55.3186928608101
189900000,-55.5647895582616
190000000,-55.0730099984377
190100000,-55.0758427106719
190200000,-55.0301696131649
190300000,-54.9675929758996
190400000,-55.25484611798
190500000,-55.030583448244
190600000,-55.4177879558517
190700000,-55.4345844617993
190800000,-55.3065984750345
190900000,-55.1506849008429
191000000,-55.1263249621616
191100000,-55.2371933415467
191200000,-55.4244951180998
191300000,-55.051040336584
191400000,-54.9642107944481
191500000,-55.4013909848195
191600000,-55.0389602509722
191700000,-55.3026954246932
191800000,-55.4576599947521
191900000,-55.4575529609414
192000000,-55.3795426569403
192100000,-55.3493032261691
192200000,-55.1867752233765
192300000,-55.3505590315701
192400000,-54.4229621205866
192500000,-54.4316743249106
192600000,-55.3517078031605
192700000,-55.2465048482438
192800000,-54.8995077811323
192900000,-55.4836752737498
193000000,-55.234424762632
193100000,-55.0704268868169
193200000,-55.2636081554598
193300000,-55.4597291701476
193400000,-55.2295870083218
193500000,-54.79880717893
193600000,-55.1926261151388
193700000,-54.8169665240893
193800000,-54.4765838855789
193900000,-54.9372820443097
194000000,-55.2950890914682
194100000,-55.3618612801795
194200000,-54.3850236229435
194300000,-54.930974416977
194400000,-54.6714347947019
194500000,-54.5618222207179
194600000,-54.596257202935
194700000,-55.0687143458455
194800000,-55.3126062337633
194900000,-55.2434151678969
195000000,-55.1426218320476
195100000,-55.2069994927545
195200000,-55.0023903903509
195300000,-55.3563330364826
195400000,-55.361915776291
195500000,-55.0103193716414
195600000,-54.9629866826412
195700000,-54.8575940092538
195800000,-54.9792967178366
195900000,-55.2670950779575
196000000,-55.1815456903733
196100000,-55.006334048419
196200000,-55.0449889312328
196300000,-55.4378832124596
196400000,-55.1237685698828
196500000,-55.0080867853381
196600000,-55.043801922107
196700000,-55.1559504560438
196800000,-55.0549674017238
196900000,-55.1391883482338
197000000,-54.7897967531179
197100000,-54.854909350336
197200000,-55.1258041706986
197300000,-55.2261937204557
197400000,-54.3888042818827
197500000,-55.0595045643547
197600000,-54.9504372084111
197700000,-54.7134908995135
197800000,-54.8903138464386
197900000,-54.7437647284223
198000000,-54.6729140710627
198100000,-55.1503260510811
198200000,-55.0949090604573
198300000,-54.8513483229586
198400000,-55.3250856204208
198500000,-54.7544781354245
198600000,-54.5057728423472
198700000,-54.9956787430564
198800000,-55.0872490546788
198900000,-55.0656391435717
199000000,-54.780921961444
199100000,-55.1958643380078
199200000,-54.7053649327356
199300000,-54.7116826090553
199400000,-55.0443120963612
199500000,-54.9558229627321
199600000,-55.4641022762221
199700000,-55.3631192219021
199800000,-54.9953542140054
199900000,-55.1552736211722
200000000,-55.0087245031559
