Trace
Swept SA
A.08.55,N9000A
503 FSA ,01
Segment,0
Number of Points,1501
Sweep Time,0.001
Start Frequency,50000000
Stop Frequency,200000000
Average Count,0
Average Type,LogPower(Video)
RBW,1500000
RBW Filter,Gaussian
RBW Filter BW,3dB
VBW,50000000
Sweep Type,Swept
X Axis Scale,Lin
PreAmp State,Off
PreAmp Band,Low
Trigger Source,Free
Trigger Level,1.2
Trigger Slope,Positive
Trigger Delay,0
Phase Noise Optimization,Fast
Swept If Gain,Low
FFT If Gain,Autorange
RF Coupling,AC
FFT Width,411900
Ext Ref,10000000
Input,RF
RF Calibrator,Off
Attenuation,10
Ref Level Offset,0
External Gain,0
Trace Type,Maxhold
Detector,Peak
Trace Math,Off
Trace Math Oper1,Trace5
Trace Math Oper2,Trace6
Trace Math Offset,0
Trace Name,Trace1
X Axis Units,Hz
Y Axis Units,dBm
DATA
50000000,-17.9260955254839
50100000,-17.9289409481952
50200000,-17.9376658629964
50300000,-17.9375715396627
50400000,-17.9426217719077
50500000,-17.9344431469506
50600000,-17.9424331252405
50700000,-17.9401339923732
50800000,-17.9451842246182
50900000,-17.9362706631498
51000000,-17.9398510223723
51100000,-17.9368169529937
51200000,-17.923493772458
51300000,-17.9131103379671
51400000,-17.9387387925266
51500000,-17.9305601675694
51600000,-17.9444296379492
51700000,-17.9391907590369
51800000,-17.9361566896584
51900000,-17.9404719853922
52000000,-17.9330282969462
52100000,-17.9410182752361
52200000,-17.9416588884137
52300000,-17.9415645650801
52400000,-17.9385304957016
52500000,-17.9465204739915
52600000,-17.9471610871691
52700000,-17.9441270177906
52800000,-17.9403580119008
52900000,-17.9373239425222
53000000,-17.9460488573234
53100000,-17.937135295855
53200000,-17.9576191948358
53300000,-17.9465008238337
53400000,-17.9552257386349
53500000,-17.9485169867002
53600000,-17.9462178538329
53700000,-17.9461235304992
53800000,-17.9511737627442
53900000,-17.945934883832
54000000,-17.9561296716556
54100000,-17.9486859832097
54200000,-17.9603506440557
54300000,-17.956581638166
54400000,-17.9535475687874
54500000,-17.9512484359201
54600000,-17.9562986681651
54700000,-17.9539995352978
54800000,-17.959784704054
54900000,-17.9560156981642
55000000,-17.9500418827407
55100000,-17.9499475594071
55200000,-17.9586724742083
55300000,-17.9593130873859
55400000,-17.9555440814961
55500000,-17.9561846946737
55600000,-17.9619698634299
55700000,-17.9589357940514
55800000,-17.9647209628076
55900000,-17.955072464828
56000000,-17.9557130780056
56100000,-17.9519440721158
56200000,-17.9547894948271
56300000,-17.9524903619598
56400000,-17.9641550228059
56500000,-17.9581812073824
56600000,-17.9654362491611
56700000,-17.9601973702489
56800000,-17.9637777294714
56900000,-17.9658882156715
57000000,-17.9635890828041
57100000,-17.9664345055154
57200000,-17.9663401821818
57300000,-17.9596314302471
57400000,-17.9565973608686
57500000,-17.9513584819563
57600000,-17.9652279523361
57700000,-17.9680733750474
57800000,-17.9628344961352
57900000,-17.9715594109363
58000000,-17.9714650876027
58100000,-17.9713707642691
58200000,-17.9712764409354
58300000,-17.9741218636467
58400000,-17.9644733656671
58500000,-17.9621742327998
58600000,-17.9789834492245
58700000,-17.9796240624021
58800000,-17.9707105009337
58900000,-17.9676764315552
59000000,-17.9617026161317
59100000,-17.9704275309328
59200000,-17.9732729536441
59300000,-17.9761183763554
59400000,-17.9752891165106
59500000,-17.9788694757331
59600000,-17.9751004698433
59700000,-17.972801336976
59800000,-17.9756467596873
59900000,-17.9843716744885
60000000,-17.9813376051099
60100000,-17.9753637896864
60200000,-17.9752694663528
60300000,-17.9869341271989
60400000,-17.9868398038653
60500000,-17.9838057344867
60600000,-17.9917957127766
60700000,-17.9828821513082
60800000,-17.9798480819297
60900000,-17.9885729967308
61000000,-17.9848039908411
61100000,-17.9803000484401
61200000,-17.9971092648647
61300000,-17.9918703859525
61400000,-17.9947158086638
61500000,-17.9946214853302
61600000,-17.9908524794404
61700000,-17.9885533465731
61800000,-17.996543324863
61900000,-17.9883646999058
62000000,-17.9904751861059
62100000,-17.9911157992835
62200000,-17.9998407140847
62300000,-18.0019512002847
62400000,-17.9967123213725
62500000,-18.0017625536175
62600000,-17.9965236747053
62700000,-17.9934896053267
62800000,-18.0007446471054
62900000,-17.9962407047044
63000000,-18.0020258734606
63100000,-18.0048712961719
63200000,-18.0047769728383
63300000,-18.0068874590384
63400000,-18.004588326171
63500000,-18.0008193202812
63600000,-17.9985201874139
63700000,-18.0035704196589
63800000,-17.9983315407467
63900000,-18.0004420269468
64000000,-18.0010826401244
64100000,-17.9951088247009
64200000,-18.0053036125245
64300000,-17.9949201780337
64400000,-18.0124643309696
64500000,-18.0123700076359
64600000,-18.0122756843023
64700000,-18.0085066784125
64800000,-18.0062075455452
64900000,-18.0090529682565
65000000,-18.0001394067881
65100000,-18.0265027978588
65200000,-18.022733791969
65300000,-18.0174949130568
65400000,-18.016665653212
65500000,-18.0165713298783
65600000,-18.0172119430559
65700000,-18.0222621753009
65800000,-18.0229027884785
65900000,-18.0286879572348
66000000,-18.0227141418113
66100000,-18.0255595645226
66200000,-18.025465241189
66300000,-18.0194914257655
66400000,-18.0193971024319
66500000,-18.0273870807218
66600000,-18.0272927573882
66700000,-18.0279333705658
66800000,-18.0307787932771
66900000,-18.0277447238985
67000000,-18.0364696386997
67100000,-18.0356403788548
67200000,-18.0362809920324
67300000,-18.0354517321876
67400000,-18.0331525993203
67500000,-18.0411425776102
67600000,-18.0388434447429
67700000,-18.0387491214092
67800000,-18.0357150520307
67900000,-18.0370906017195
68000000,-18.0355264053635
68100000,-18.0376368915635
68200000,-18.041217250786
68300000,-18.0411229274524
68400000,-18.0380888580739
68500000,-18.0431390903189
68600000,-18.0430447669853
68700000,-18.0436853801628
68800000,-18.0465308028742
68900000,-18.0464364795405
69000000,-18.0536915213192
69100000,-18.0425731503171
69200000,-18.0395390809386
69300000,-18.0431194401611
69400000,-18.0481696724061
69500000,-18.0576295237185
69600000,-18.051655708295
69700000,-18.0537661944951
69800000,-18.0602862997625
69900000,-18.0506378017829
70000000,-18.0476037324044
70100000,-18.0622081392954
70200000,-18.0562343238719
70300000,-18.0509954449597
70400000,-18.0538408676709
70500000,-18.0596260364272
70600000,-18.0595317130936
70700000,-18.056497643715
70800000,-18.0674273680498
70900000,-18.0585138065815
71000000,-18.0562146737141
71100000,-18.0590600964254
71200000,-18.0582308365806
71300000,-18.0559317037133
71400000,-18.0668614280481
71500000,-18.0645622951808
71600000,-18.0747570830044
71700000,-18.0636387120023
71800000,-18.0635443886687
71900000,-18.0612452558014
72000000,-18.0692352340913
72100000,-18.0750204028475
72200000,-18.0749260795139
72300000,-18.0726269466466
72400000,-18.0798819884253
72500000,-18.0724382999793
72600000,-18.0782234687355
72700000,-18.0803339549356
72800000,-18.0692155839335
72900000,-18.0750007526898
73000000,-18.0741714928449
73100000,-18.0718723599776
73200000,-18.0776575287338
73300000,-18.08344269749
73400000,-18.0774688820666
73500000,-18.0736998761768
73600000,-18.0714007433095
73700000,-18.0882099597342
73800000,-18.0829710808219
73900000,-18.0916959956231
74000000,-18.0849872436884
74100000,-18.085627856866
74200000,-18.0884732795773
74300000,-18.0942584483335
74400000,-18.0941641249999
74500000,-18.0881903095764
74600000,-18.0880959862428
74700000,-18.0880016629092
74800000,-18.0930518951542
74900000,-18.0907527622868
75000000,-18.1016824866217
75100000,-18.0964436077094
75200000,-18.0956143478646
75300000,-18.0962549610422
75400000,-18.0961606377086
75500000,-18.1048855525097
75600000,-18.1011165466199
75700000,-18.1046969058425
75800000,-18.1009278999527
75900000,-18.0956890210405
76000000,-18.1073536818865
76100000,-18.1065244220417
76200000,-18.1012855431294
76300000,-18.1122152674643
76400000,-18.1062414520408
76500000,-18.1010025731286
76600000,-18.0942938211939
76700000,-18.112572910641
76800000,-18.1117436507961
76900000,-18.1212035021085
77000000,-18.1064104485503
77100000,-18.1092558712616
77200000,-18.1121012939729
77300000,-18.111272034128
77400000,-18.1170572028842
77500000,-18.1088785779271
77600000,-18.1109890641272
77700000,-18.1057501852149
77800000,-18.1196196555947
77900000,-18.1173205227274
78000000,-18.108406961259
78100000,-18.12301136815
78200000,-18.1163026162153
78300000,-18.114003483348
78400000,-18.1227283981491
78500000,-18.1255738208604
78600000,-18.1159253228808
78700000,-18.1165659360584
78800000,-18.1164716127248
78900000,-18.1251965275259
79000000,-18.127307013726
79100000,-18.1308873729485
79200000,-18.1307930496149
79300000,-18.1306987262813
79400000,-18.1357489585263
79500000,-18.1275703335691
79600000,-18.1296808197692
79700000,-18.1391406710815
79800000,-18.1353716651918
79900000,-18.1293978497683
80000000,-18.1388577010807
80100000,-18.1358236317021
80200000,-18.1386690544134
80300000,-18.1407795406135
80400000,-18.1384804077462
80500000,-18.1354463383676
80600000,-18.1324122689891
80700000,-18.140402247279
80800000,-18.1351633683668
80900000,-18.140948537123
81000000,-18.1408542137894
81100000,-18.1407598904557
81200000,-18.1428703766558
81300000,-18.1427760533222
81400000,-18.13753717441
81500000,-18.1462620892111
81600000,-18.1461677658775
81700000,-18.1482782520775
81800000,-18.1423044366541
81900000,-18.1400053037868
82000000,-18.1575494567227
82100000,-18.1545153873441
82200000,-18.1544210640105
82300000,-18.1506520581207
82400000,-18.1476179887422
82500000,-18.1541380940096
82600000,-18.1481642785862
82700000,-18.1532145108311
82800000,-18.1509153779638
82900000,-18.1567005467201
83000000,-18.1558712868752
83100000,-18.150632407963
83200000,-18.1564175767192
83300000,-18.1585280629193
83400000,-18.1562289300519
83500000,-18.1524599241622
83600000,-18.1619197754746
83700000,-18.1618254521409
83800000,-18.1617311288073
83900000,-18.1697211070972
84000000,-18.1703617202748
84100000,-18.1732071429861
84200000,-18.1642935815177
84300000,-18.1583197660943
84400000,-18.1604302522943
84500000,-18.1610708654719
84600000,-18.1720005898068
84700000,-18.1667617108945
84800000,-18.1688721970946
84900000,-18.1695128102722
85000000,-18.1694184869386
85100000,-18.1722639096499
85200000,-18.1765792053836
85300000,-18.1691355169377
85400000,-18.1771254952276
85500000,-18.1718866163154
85600000,-18.1769368485604
85700000,-18.1739027791818
85800000,-18.1708687098033
85900000,-18.1862080532055
86000000,-18.1772944917371
86100000,-18.1794049779372
86200000,-18.1771058450699
86300000,-18.176276585225
86400000,-18.1710377063128
86500000,-18.1731481925129
86600000,-18.1671743770894
86700000,-18.1648752442221
86800000,-18.1618411748435
86900000,-18.1617468515099
87000000,-18.1675320202661
87100000,-18.1667027604213
87200000,-18.1666084370876
87300000,-18.1643093042203
87400000,-18.1605402983306
87500000,-18.1663254670868
87600000,-18.1662311437532
87700000,-18.1631970743746
87800000,-18.1608979415073
87900000,-18.1600686816625
88000000,-18.163649040885
88100000,-18.1694342096412
88200000,-18.1752193783974
88300000,-18.1685106264627
88400000,-18.1662114935954
88500000,-18.1742014718853
88600000,-18.171902339018
88700000,-18.1718080156844
88800000,-18.1709787558395
88900000,-18.1708844325059
89000000,-18.1649106170824
89100000,-18.1736355318836
89200000,-18.1647219704152
89300000,-18.1653625835928
89400000,-18.1623285142143
89500000,-18.176197984594
89600000,-18.1768385977716
89700000,-18.1760093379268
89800000,-18.1700355225033
89900000,-18.1647966435911
90000000,-18.1676420663024
90100000,-18.1822464731933
90200000,-18.1814172133485
90300000,-18.1813228900149
90400000,-18.1790237571476
90500000,-18.175989687769
90600000,-18.181039920014
90700000,-18.1809455966804
90800000,-18.1786464638131
90900000,-18.1807569500132
91000000,-18.1843373092357
91100000,-18.1783634938122
91200000,-18.1812089165235
91300000,-18.1928735773696
91400000,-18.1839600159012
91500000,-18.1838656925676
91600000,-18.1778918771441
91700000,-18.1895565379902
91800000,-18.1835827225667
91900000,-18.1893678913229
92000000,-18.1922133140342
92100000,-18.1877093716332
92200000,-18.1736512545862
92300000,-18.1853159154323
92400000,-18.1918360206997
92500000,-18.185127268765
92600000,-18.1798883898528
92700000,-18.1827338125641
92800000,-18.1855792352754
92900000,-18.1854849119418
93000000,-18.1964146362766
93100000,-18.1941155034093
93200000,-18.1910814340307
93300000,-18.193926856742
93400000,-18.1901578508523
93500000,-18.1841840354288
93600000,-18.1818849025615
93700000,-18.1869351348065
93800000,-18.1846360019392
93900000,-18.1904211706954
94000000,-18.1932665934067
94100000,-18.196112016118
94200000,-18.1901382006945
94300000,-18.187104131316
94400000,-18.1870098079823
94500000,-18.1891202941824
94600000,-18.1831464787589
94700000,-18.1830521554253
94800000,-18.1866325146479
94900000,-18.1894779373591
95000000,-18.1915884235592
95100000,-18.1892892906919
95200000,-18.1921347134032
95300000,-18.1942451996033
95400000,-18.1970906223146
95500000,-18.1889119973574
95600000,-18.1888176740238
95700000,-18.1821089220891
95800000,-18.1886290273565
95900000,-18.1936792596015
96000000,-18.1935849362679
96100000,-18.1854063113108
96200000,-18.1941312261119
96300000,-18.1881574106884
96400000,-18.1910028333997
96500000,-18.1850290179763
96600000,-18.1841997581314
96700000,-18.1899849268876
96800000,-18.1876857940203
96900000,-18.1868565341755
97000000,-18.1845574013082
97100000,-18.1896076335532
97200000,-18.1895133102195
97300000,-18.1872141773522
97400000,-18.1841801079737
97500000,-18.1929050227748
97600000,-18.1928106994412
97700000,-18.1838971379728
97800000,-18.1867425606841
97900000,-18.1895879833954
98000000,-18.1865539140168
98100000,-18.1864595906832
98200000,-18.1885700768833
98300000,-18.186270944016
98400000,-18.191321176261
98500000,-18.1882871068824
98600000,-18.1801084819253
98700000,-18.1888333967264
98800000,-18.1828595813029
98900000,-18.1908495595929
99000000,-18.1878154902143
99100000,-18.185516357347
99200000,-18.1883617800583
99300000,-18.1816530281236
99400000,-18.1852333873461
99500000,-18.1873438735462
99600000,-18.1850447406789
99700000,-18.1849504173453
99800000,-18.1848560940116
99900000,-18.184761770678
100000000,-18.1927517489679
100100000,-18.1904526161006
100200000,-18.1925631023007
100300000,-18.1902639694334
100400000,-18.1931093921447
100500000,-18.1988945609009
100600000,-18.201005047101
100700000,-18.1957661681887
100800000,-18.1949369083439
100900000,-18.1830836008305
101000000,-18.1807844679632
101100000,-18.1909792557868
101200000,-18.1828006308297
101300000,-18.1974050377207
101400000,-18.1921661588084
101500000,-18.1942766450085
101600000,-18.1860980200513
101700000,-18.1852687602065
101800000,-18.1976683575638
101900000,-18.1909596056291
102000000,-18.1916002188067
102100000,-18.1885661494282
102200000,-18.1936163816731
102300000,-18.1883775027609
102400000,-18.1934277350059
102500000,-18.1852491100487
102600000,-18.1851547867151
102700000,-18.1872652729152
102800000,-18.1849661400479
102900000,-18.193691054849
103000000,-18.1847774933806
103100000,-18.184683170047
103200000,-18.1867936562471
103300000,-18.1815547773348
103400000,-18.18072551749
103500000,-18.1813661306676
103600000,-18.1753923152441
103700000,-18.1745630553993
103800000,-18.1840229067116
103900000,-18.1773141547769
104000000,-18.1750150219096
104100000,-18.1888844922894
104200000,-18.1623324545515
104300000,-18.1629730677291
104400000,-18.1746377285751
104500000,-18.1804228973314
104600000,-18.1832683200427
104700000,-18.183173996709
104800000,-18.1735254987294
104900000,-18.177105857952
105000000,-18.1799512806632
105100000,-18.1710377191949
105200000,-18.1680036498163
105300000,-18.1789333741511
105400000,-18.1788390508175
105500000,-18.1736001719053
105600000,-18.1757106581054
105700000,-18.1704717791931
105800000,-18.1762569479493
105900000,-18.1761626246157
106000000,-18.1804779203495
106100000,-18.1700944858586
106200000,-18.170000162525
106300000,-18.1699058391914
106400000,-18.1727512619027
106500000,-18.175596684614
106600000,-18.1725626152354
106700000,-18.1687936093457
106800000,-18.1635547304334
106900000,-18.1627254705886
107000000,-18.1626311472549
107100000,-18.1485730302079
107200000,-18.1661171831439
107300000,-18.1682276693439
107400000,-18.1629887904317
107500000,-18.1650992766318
107600000,-18.1650049532982
107700000,-18.1627058204308
107800000,-18.1706957987207
107900000,-18.1676617293422
108000000,-18.16242285043
108100000,-18.1557140984953
108200000,-18.153414965628
108300000,-18.1525857057831
108400000,-18.1554311284944
108500000,-18.1472525035372
108600000,-18.1589171643833
108700000,-18.1404494282689
108800000,-18.1381502954016
108900000,-18.1615739404273
109000000,-18.1548651884927
109100000,-18.1584455477152
109200000,-18.1576162878703
109300000,-18.1582569010479
109400000,-18.1552228316694
109500000,-18.1580682543807
109600000,-18.1447450738449
109700000,-18.1402411314439
109800000,-18.1482311097338
109900000,-18.1459319768665
110000000,-18.1392232249318
110100000,-18.145008393688
110200000,-18.1478538163994
110300000,-18.1426149374871
110400000,-18.1447254236872
110500000,-18.1446311003535
110600000,-18.1423319674862
110700000,-18.1481171362424
110800000,-18.1450830668639
110900000,-18.1420489974854
111000000,-18.1390149281068
111100000,-18.1418603508181
111200000,-18.1388262814396
111300000,-18.138731958106
111400000,-18.1415773808173
111500000,-18.1444228035285
111600000,-18.1435935436837
111700000,-18.1383546647715
111800000,-18.1412000874828
111900000,-18.137431081593
112000000,-18.1343970122145
112100000,-18.1320978793471
112200000,-18.1312686195023
112300000,-18.1348489787248
112400000,-18.1421040205035
112500000,-18.1280459034565
112600000,-18.1308913261678
112700000,-18.1256524472556
112800000,-18.1284978699668
112900000,-18.1313432926781
113000000,-18.1312489693445
113100000,-18.1245402174098
113200000,-18.1215061480313
113300000,-18.1243515707426
113400000,-18.1183777553191
113500000,-18.1307773526764
113600000,-18.1299480928316
113700000,-18.1247092139193
113800000,-18.1304943826755
113900000,-18.127460313297
114000000,-18.1273659899634
114100000,-18.1147777459388
114200000,-18.1124786130715
114300000,-18.1263480834513
114400000,-18.1152297124492
114500000,-18.1151353891156
114600000,-18.1179808118269
114700000,-18.1289105361617
114800000,-18.1229367207382
114900000,-18.1257821434495
115000000,-18.1198083280261
115100000,-18.1175091951588
115200000,-18.1174148718251
115300000,-18.1165856119803
115400000,-18.1186960981803
115500000,-18.1112524097344
115600000,-18.1192423880243
115700000,-18.1110637630672
115800000,-18.1050899476437
115900000,-18.1042606877989
116000000,-18.1071061105102
116100000,-18.1128912792664
116200000,-18.0980982257082
116300000,-18.0987388388857
116400000,-18.1067288171757
116500000,-18.1073694303533
116600000,-18.1102148530646
116700000,-18.1064458471748
116800000,-18.1041467143075
116900000,-18.1003777084177
117000000,-18.0980785755504
117100000,-18.1038637443066
117200000,-18.1096489130628
117300000,-18.1036750976394
117400000,-18.1035807743058
117500000,-18.109365943062
117600000,-18.1055969371722
117700000,-18.1032978043049
117800000,-18.1054082905049
117900000,-18.1031091576376
118000000,-18.1022798977928
118100000,-18.0941012728356
118200000,-18.0969466955469
118300000,-18.108611356393
118400000,-18.1026375409695
118500000,-18.1076877732145
118600000,-18.0958344657012
118700000,-18.0898606502777
118800000,-18.102260247635
118900000,-18.1021659243014
119000000,-18.0991318549229
119100000,-18.0924231029882
119200000,-18.0989432082556
119300000,-18.0951742023659
119400000,-18.0928750694985
119500000,-18.1015999842997
119600000,-18.0978309784099
119700000,-18.0947969090314
119800000,-18.0895580301191
119900000,-18.0887287702743
120000000,-18.0952488755417
120100000,-18.0944196156969
120200000,-18.0921204828295
120300000,-18.0920261594959
120400000,-18.0919318361623
120500000,-18.0947772588736
120600000,-18.0939479990288
120700000,-18.0909139296502
120800000,-18.0966990984064
120900000,-18.0914602194942
121000000,-18.0847514675595
121100000,-18.0817173981809
121200000,-18.0992615511169
121300000,-18.0874082436035
121400000,-18.0733501265565
121500000,-18.0732558032229
121600000,-18.0959445117374
121700000,-18.0877658867803
121800000,-18.0847318174017
121900000,-18.087577240113
122000000,-18.0874829167794
122100000,-18.0844488474009
122200000,-18.0902340161571
122300000,-18.0901396928235
122400000,-18.0922501790235
122500000,-18.0840715540664
122600000,-18.0839772307328
122700000,-18.0853527804216
122800000,-18.0779090919757
122900000,-18.0770798321308
123000000,-18.0718409532186
123100000,-18.0886501696432
123200000,-18.083411290731
123300000,-18.0767025387963
123400000,-18.074403405929
123500000,-18.0772488286403
123600000,-18.0881785529751
123700000,-18.0851444835966
123800000,-18.0769658586394
123900000,-18.0856907734406
124000000,-18.0878012596406
124100000,-18.0825623807284
124200000,-18.0729138827488
124300000,-18.0676750038366
124400000,-18.0852191567725
124500000,-18.0851248334388
124600000,-18.0820907640603
124700000,-18.0819964407267
124800000,-18.0841069269267
124900000,-18.0722536194134
125000000,-18.0780387881697
125100000,-18.0727999092574
125200000,-18.0844645701035
125300000,-18.0777558181688
125400000,-18.083540986925
125500000,-18.0812418540577
125600000,-18.0811475307241
125700000,-18.0714990327444
125800000,-18.0890431856804
125900000,-18.0823344337457
126000000,-18.0748907452997
126100000,-18.080675914056
126200000,-18.0747020986325
126300000,-18.0716680292539
126400000,-18.073778515454
126500000,-18.0802986207215
126600000,-18.0860837894777
126700000,-18.0801099740542
126800000,-18.0822204602543
126900000,-18.0711020892522
127000000,-18.0827667500983
127100000,-18.0856121728096
127200000,-18.0766986113412
127300000,-18.0766042880076
127400000,-18.0853292028087
127500000,-18.0844999429638
127600000,-18.0822008100965
127700000,-18.0747571216506
127800000,-18.0702531792496
127900000,-18.0664841733598
128000000,-18.081823516762
128100000,-18.0809942569172
128200000,-18.0779601875387
128300000,-18.0749261181601
128400000,-18.0814462234276
128500000,-18.0695929159142
128600000,-18.0665588465357
128700000,-18.0811632534267
128800000,-18.0825388031155
128900000,-18.0780348607145
129000000,-18.0713261087798
129100000,-18.0690269759125
129200000,-18.0799567002473
129300000,-18.07765756738
129400000,-18.0768283075352
129500000,-18.0715894286229
129600000,-18.0795794069128
129700000,-18.0736055914894
129800000,-18.0667611062833
129900000,-18.0708049354742
130000000,-18.0667644630417
130100000,-18.0730131017663
130200000,-18.0660328832888
130300000,-18.0634622838787
130400000,-18.062361557491
130500000,-18.056851212036
130600000,-18.0528107396034
130700000,-18.0509750767045
130800000,-18.0660429535639
130900000,-18.0590627350864
131000000,-18.0564921356763
131100000,-18.0553914092886
131200000,-18.0594352384796
131300000,-18.0546598295358
131400000,-18.0587036587268
131500000,-18.050988503738
131600000,-18.0491528408391
131700000,-18.0443774318953
131800000,-18.05062607062
131900000,-18.0436458521424
132000000,-18.0476896813334
132100000,-18.0421793358784
132200000,-18.0462231650693
132300000,-18.0421826926368
132400000,-18.034467537648
132500000,-18.038511366839
132600000,-18.0484346881197
132700000,-18.0399845966198
132800000,-18.0300646320974
132900000,-18.0282289691985
133000000,-18.0381522904793
133100000,-18.0267624529344
133200000,-18.0249267900355
133300000,-18.0267658096928
133400000,-18.021990400749
133500000,-18.023094483895
133600000,-18.0234636305298
133700000,-18.0106039199624
133800000,-18.0087682570636
133900000,-18.0201614513668
134000000,-18.0109764233556
134100000,-18.0231045541701
134200000,-18.0102448436028
134300000,-18.0084091807039
134400000,-18.0175975654734
134500000,-18.0135570930409
134600000,-18.0168659857206
134700000,-18.0120905767768
134800000,-18.0051103582993
134900000,-18.0032746954004
135000000,-18.0007040959903
135100000,-18.0010732426251
135200000,-17.986008722524
135300000,-18.0018115358947
135400000,-17.9970361269508
135500000,-17.9966703370744
135600000,-17.9896901185969
135700000,-17.9944688842991
135800000,-17.9948380309339
135900000,-17.9878578124564
136000000,-17.9889618956025
136100000,-17.9900659787485
136200000,-17.9874953793384
136300000,-17.9944789545742
136400000,-17.9933782281866
136500000,-17.9908076287765
136600000,-17.983827410299
136700000,-17.9871363029787
136800000,-17.9772163384563
136900000,-17.9834649771809
137000000,-17.9823642507932
137100000,-17.9797936513831
137200000,-17.9757531789505
137300000,-17.987881309765
137400000,-17.9867805833774
137500000,-17.9761256823437
137600000,-17.9742900194448
137700000,-17.9834784042144
137800000,-17.9706186936471
137900000,-17.9776022688829
138000000,-17.975766605984
138100000,-17.9739309430851
138200000,-17.9596013594954
138300000,-17.975404172866
138400000,-17.9713637004334
138500000,-17.9724677835794
138600000,-17.9632827555683
138700000,-17.957037473602
138800000,-17.9654909218603
138900000,-17.9563058938491
139000000,-17.9676990881524
139100000,-17.9518996315401
139200000,-17.968437381422
139300000,-17.959987289922
139400000,-17.9471275793547
139500000,-17.9452919164558
139600000,-17.9669742219163
139700000,-17.9563193208826
139800000,-17.9633028961185
139900000,-17.9585274871747
140000000,-17.9684508084555
140100000,-17.9511814788207
140200000,-17.9471410063882
140300000,-17.9555944546465
140400000,-17.9405299345455
140500000,-17.9555978114049
140600000,-17.9486175929274
140700000,-17.9541312951408
140800000,-17.9478860131745
140900000,-17.9482551598093
141000000,-17.9412749413318
141100000,-17.9423790244778
141200000,-17.9552420918036
141300000,-17.9445871907699
141400000,-17.9420165913598
141500000,-17.943855611017
141600000,-17.9530439957866
141700000,-17.942389094753
141800000,-17.9354088762755
141900000,-17.9365129594215
142000000,-17.9434965346574
142100000,-17.9387211257136
142200000,-17.9449697644382
142300000,-17.9431341015393
142400000,-17.9471779307303
142500000,-17.9460772043426
142600000,-17.9405668588876
142700000,-17.9453456245898
142800000,-17.9346907235561
142900000,-17.9534332829717
143000000,-17.9413085089156
143100000,-17.9321234809044
143200000,-17.9471913577638
143300000,-17.9446207583536
143400000,-17.9266164922077
143500000,-17.9336000674436
143600000,-17.9405836426794
143700000,-17.9358082337356
143800000,-17.9457315550164
143900000,-17.9409561460726
144000000,-17.9361807371288
144100000,-17.9343450742299
144200000,-17.9354491573759
144300000,-17.9328785579658
144400000,-17.928103149022
144500000,-17.9270024226344
144600000,-17.9251667597355
144700000,-17.9350900810163
144800000,-17.9332544181174
144900000,-17.9343585012634
145000000,-17.9288481558084
145100000,-17.9218679373309
145200000,-17.9317912586117
145300000,-17.9387748338475
145400000,-17.9332644883925
145500000,-17.9373083175834
145600000,-17.9332678451509
145700000,-17.9284924362071
145800000,-17.9259218367969
145900000,-17.9218813643644
146000000,-17.9229854475104
146100000,-17.9329087687912
146200000,-17.9251936138025
146300000,-17.9285025064822
146400000,-17.9244620340496
146500000,-17.9255661171957
146600000,-17.9207907082518
146700000,-17.9248345374428
146800000,-17.9369626682573
146900000,-17.9233680211787
147000000,-17.9163878027012
147100000,-17.9292508700269
147200000,-17.930354953173
147300000,-17.9285192902741
147400000,-17.9237438813303
147500000,-17.9211732819201
147600000,-17.9259520476223
147700000,-17.9270561307683
147800000,-17.923750594847
147900000,-17.9108908842797
148000000,-17.9296334436952
148100000,-17.9189785426615
148200000,-17.9119983241841
148300000,-17.9300059470884
148400000,-17.9230257286109
148500000,-17.921190065712
148600000,-17.9303784504816
148700000,-17.926337978049
148800000,-17.9333215532849
148900000,-17.9366304459646
149000000,-17.9377345291106
149100000,-17.9425132948128
149200000,-17.9487619335375
149300000,-17.9447214611049
149400000,-17.9546447823857
149500000,-17.9469296273969
149600000,-17.9509734565879
149700000,-17.9461980476441
149800000,-17.9443623847452
149900000,-17.9484062139361
150000000,-17.9583295352169
150100000,-17.9535541262731
150200000,-17.9546582094192
150300000,-17.9462081179192
150400000,-17.9421676454866
150500000,-17.9432717286327
150600000,-17.9531950499135
150700000,-17.9535641965482
150800000,-17.9524634701606
150900000,-17.9506278072617
151000000,-17.9458523983179
151100000,-17.9521010370425
151200000,-17.9421810725201
151300000,-17.9550441398458
151400000,-17.950268730902
151500000,-17.9601920521828
151600000,-17.9488022146379
151700000,-17.9506412342952
151800000,-17.9576248095311
151900000,-17.9675481308119
152000000,-17.9590980393119
152100000,-17.9550575668793
152200000,-17.9591013960703
152300000,-17.9572657331714
152400000,-17.9583698163174
152500000,-17.9616787089971
152600000,-17.9635177286544
152700000,-17.9616820657555
152800000,-17.9708704505251
152900000,-17.9602155494914
153000000,-17.9561750770589
153100000,-17.9631586522947
153200000,-17.9613229893959
153300000,-17.9646318820756
153400000,-17.9627962191767
153500000,-17.961695492789
153600000,-17.9686790680249
153700000,-17.966843405126
153800000,-17.9554535675811
153900000,-17.9514130951485
154000000,-17.9672159085192
154100000,-17.9793440393337
154200000,-17.9694240748112
154300000,-17.9705281579573
154400000,-17.9745719871482
154500000,-17.9661218956483
154600000,-17.9848644550638
154700000,-17.9742095540302
154800000,-17.9789883197324
154900000,-17.9786225298559
155000000,-17.9664977557998
155100000,-17.9778909501031
155200000,-17.9709107316256
155300000,-17.9756894973278
155400000,-17.9856128186086
155500000,-17.9778976636198
155600000,-17.9760620007209
155700000,-17.9734914013108
155800000,-17.9716557384119
155900000,-17.9823139962039
156000000,-17.9804783333051
156100000,-17.9815824164511
156200000,-17.9797467535522
156300000,-17.989670074833
156400000,-17.9907741579791
156500000,-17.9918782411251
156600000,-17.989307641715
156700000,-17.9882069153273
156800000,-17.9893109984733
156900000,-17.9874753355744
157000000,-17.9944589108103
157100000,-17.9838040097767
157200000,-17.9988718866361
157300000,-17.9970362237372
157400000,-17.9952005608383
157500000,-17.9933648979394
157600000,-17.9981436636416
157700000,-17.9933682546978
157800000,-17.9915325917989
157900000,-17.9955764209898
158000000,-17.9996202501808
158100000,-18.0088086349504
158200000,-17.9981537339167
158300000,-18.0029324996189
158400000,-18.00109683672
158500000,-18.0080804119559
158600000,-18.0033050030121
158700000,-17.9985295940683
158800000,-18.0099227883715
158900000,-18.0036775064053
159000000,-17.9989020974615
159100000,-18.0147049108321
159200000,-18.0150740574669
159300000,-18.0161781406129
159400000,-18.0121376681803
159500000,-18.0132417513264
159600000,-18.0275746916746
159700000,-18.0213294097083
159800000,-18.0165540007645
159900000,-18.0147183378656
160000000,-18.0217019131014
160100000,-18.030890297871
160200000,-18.0224402063711
160300000,-18.0132551783599
160400000,-18.0231784996407
160500000,-18.0213428367418
160600000,-18.0283264119777
160700000,-18.0264907490788
160800000,-18.0364140703595
160900000,-18.0169399311911
161000000,-18.0349475540955
161100000,-18.0338468277078
161200000,-18.0408304029437
161300000,-18.0441392956234
161400000,-18.034219331101
161500000,-18.0338535412246
161600000,-18.0268733227471
161700000,-18.0456158821626
161800000,-18.0386356636851
161900000,-18.045619238921
162000000,-18.046723322067
162100000,-18.0448876591681
162200000,-18.051871234404
162300000,-18.0500355715051
162400000,-18.057019146741
162500000,-18.0522437377972
162600000,-18.0533478209432
162700000,-18.0566567136229
162800000,-18.0526162411904
162900000,-18.0500456417802
163000000,-18.062908709106
163100000,-18.0559284906285
163200000,-18.0709963674879
163300000,-18.0632812124991
163400000,-18.0680599782013
163500000,-18.0750435534372
163600000,-18.0673283984485
163700000,-18.0706372911282
163800000,-18.0636570726507
163900000,-18.0677009018416
164000000,-18.0658652389427
164100000,-18.0809331158022
164200000,-18.0710131512797
164300000,-18.0809364725605
164400000,-18.0783658731504
164500000,-18.0853494483863
164600000,-18.0813089759537
164700000,-18.0794733130548
164800000,-18.0805773962009
164900000,-18.0846212253918
165000000,-18.0849903720266
165100000,-18.080949899594
165200000,-18.0908732208748
165300000,-18.089037557976
165400000,-18.0842621490321
165500000,-18.0853662321782
165600000,-18.1033738550825
165700000,-18.0875743984702
165800000,-18.0997025292847
165900000,-18.0978668663858
166000000,-18.1114648702228
166100000,-18.1155086994138
166200000,-18.1048537983801
166300000,-18.1059578815261
166400000,-18.1041222186272
166500000,-18.1052263017733
166600000,-18.108535194453
166700000,-18.1103742141102
166800000,-18.110743360745
166900000,-18.124341364582
167000000,-18.1225057016831
167100000,-18.1111158641382
167200000,-18.1070753917056
167300000,-18.1221432685651
167400000,-18.1122233040426
167500000,-18.1103876411437
167600000,-18.1320699466042
167700000,-18.1243547916155
167800000,-18.1254588747615
167900000,-18.1236232118626
168000000,-18.1306067870985
168100000,-18.1434698544242
168200000,-18.1298752073457
168300000,-18.1309792904917
168400000,-18.1438423578174
168500000,-18.1324525202725
168600000,-18.125472301795
168700000,-18.1471546072555
168800000,-18.1453189443566
168900000,-18.1545073291262
169000000,-18.1526716662273
169100000,-18.1449565112386
169200000,-18.1497352769408
169300000,-18.1471646775306
169400000,-18.1519434432328
169500000,-18.1442282882441
169600000,-18.1570913555698
169700000,-18.1604002482495
169800000,-18.153420029772
169900000,-18.1692228431427
170000000,-18.1644474341989
170100000,-18.1684912633898
170200000,-18.1725350925808
170300000,-18.2059763822209
170400000,-18.3511280215681
170500000,-18.4367498035057
170600000,-18.4407936326966
170700000,-18.4418977158427
170800000,-18.4371223068989
170900000,-18.4330818344663
171000000,-18.4371256636572
171100000,-18.4316153182022
171200000,-18.4246350997247
171300000,-18.4367632305392
171400000,-18.4261083295055
171500000,-18.4308870952077
171600000,-18.423171940219
171700000,-18.4206013408089
171800000,-18.4275849160447
171900000,-18.4176649515223
172000000,-18.4187690346683
172100000,-18.4161984352582
172200000,-18.4092182167807
172300000,-18.43016558573
172400000,-18.4143661291177
172500000,-18.4117955297076
172600000,-18.4048153112301
172700000,-18.4059193943761
172800000,-18.4055536044997
172900000,-18.3956336399773
173000000,-18.4092316438142
173100000,-18.4037212983592
173200000,-18.4055603180164
173300000,-18.392462874282
173400000,-18.406320348296
173500000,-18.4047441555741
173600000,-18.4068426454084
173700000,-18.390567722462
173800000,-18.3882565932289
173900000,-18.3932948291081
174000000,-18.3953933189425
174100000,-18.3989616817992
174200000,-18.3937108065212
174300000,-18.3958092963556
174400000,-18.3861488020102
174500000,-18.3933918474231
174600000,-18.3925505912125
174700000,-18.388769588957
174800000,-18.4026270629709
174900000,-18.3929665686256
175000000,-18.3899205028813
175100000,-18.3978984848054
175200000,-18.3963222920836
175300000,-18.3844569882045
175400000,-18.3924349701286
175500000,-18.3908587774068
175600000,-18.3834030925951
175700000,-18.3774172808059
175800000,-18.3861301992413
175900000,-18.3882286890756
176000000,-18.3785681947302
176100000,-18.3777269385196
176200000,-18.373945936264
176300000,-18.3819239181882
176400000,-18.3810826619776
176500000,-18.3728920406547
176600000,-18.3676411653767
176700000,-18.3807637028794
176800000,-18.3777176371351
176900000,-18.3798161269694
177000000,-18.3723604421578
177100000,-18.3722541224584
177200000,-18.3714128662478
177300000,-18.3610174353911
177400000,-18.3638508617367
177500000,-18.365949351571
177600000,-18.3790718890738
177700000,-18.374555950307
177800000,-18.3509316622482
177900000,-18.3478855965039
178000000,-18.3690924356302
178100000,-18.3520825761726
178200000,-18.3652051136753
178300000,-18.362159047931
178400000,-18.3613177917204
178500000,-18.3685608371333
178600000,-18.355960596743
178700000,-18.3646735151784
178800000,-18.3638322589678
178900000,-18.3534368281112
179000000,-18.3496558258556
179100000,-18.3524892522012
179200000,-18.3516479959906
179300000,-18.3530115493136
179400000,-18.3499654835693
179500000,-18.3491242273587
179600000,-18.3593070188166
179700000,-18.3525862705161
179800000,-18.3466004587269
179900000,-18.3538435041398
180000000,-18.3530022479292
180100000,-18.3433417535838
180200000,-18.3373559417946
180300000,-18.3475387332524
180400000,-18.337878238907
180500000,-18.3377719192077
180600000,-18.3361957264858
180700000,-18.3331496607415
180800000,-18.3323084045309
180900000,-18.3255876562305
181000000,-18.3365053841995
181100000,-18.3290496993878
181200000,-18.3171843955088
181300000,-18.322222631388
181400000,-18.336080105402
181500000,-18.3286244205903
181600000,-18.3167591167112
181700000,-18.3247370986354
181800000,-18.3238958424248
181900000,-18.3230545862142
182000000,-18.3222133300035
182100000,-18.3206371372817
182200000,-18.3175910715374
182300000,-18.3196895613717
182400000,-18.321788051206
182500000,-18.319476921973
182600000,-18.2965875704254
182700000,-18.2986860602597
182800000,-18.3176880898523
182900000,-18.3139070875968
183000000,-18.3049815297626
183100000,-18.304140273552
183200000,-18.2966845887403
183300000,-18.2877590309062
183400000,-18.3016165049202
183500000,-18.2948957566197
183600000,-18.2933195638979
183700000,-18.2932132441985
183800000,-18.3070707182125
183900000,-18.3003499699121
184000000,-18.3068580788138
184100000,-18.2942578384234
184200000,-18.2823925345444
184300000,-18.2793464688001
184400000,-18.286589514213
184500000,-18.2864831945136
184600000,-18.285641938303
184700000,-18.2752465074464
184800000,-18.2810196798368
184900000,-18.2735639950252
185000000,-18.2697829927696
185100000,-18.2895199588735
185200000,-18.2894136391741
185300000,-18.296656684587
185400000,-18.3024298569775
185500000,-18.2949741721658
185600000,-18.2853136778204
185700000,-18.2793278660312
185800000,-18.2843661019104
185900000,-18.274705607565
186000000,-18.2731294148432
186100000,-18.2847820793235
186200000,-18.2839408231129
186300000,-18.2882441224809
186400000,-18.2822583106916
186500000,-18.2806821179698
186600000,-18.2805757982704
186700000,-18.2760598595037
186800000,-18.2730137937593
186900000,-18.2655581089476
187000000,-18.2625120432034
187100000,-18.2646105330377
187200000,-18.2696487689169
187300000,-18.2680725761951
187400000,-18.2709060025406
187500000,-18.260510571684
187600000,-18.2574645059397
187700000,-18.2617678053077
187800000,-18.2579868030521
187900000,-18.2520009912629
188000000,-18.2563042906309
188100000,-18.2503184788417
188200000,-18.2435977305412
188300000,-18.2398167282857
188400000,-18.2470597736986
188500000,-18.2469534539992
188600000,-18.2387628326763
188700000,-18.2305722113534
188800000,-18.2444296853674
188900000,-18.2494679212466
189000000,-18.2478917285248
189100000,-18.2411709802243
189200000,-18.2440044065699
189300000,-18.2483077059378
189400000,-18.2423218941486
189500000,-18.241480637938
189600000,-18.2347598896375
189700000,-18.230978887382
189800000,-18.2271978851265
189900000,-18.2285614384496
190000000,-18.2255153727053
190100000,-18.2239391799834
190200000,-18.2230979237728
190300000,-18.2318108422082
190400000,-18.2243551573965
190500000,-18.220574155141
190600000,-18.2167931528854
190700000,-18.2218313887646
190800000,-18.2180503865091
190900000,-18.2150043207648
191000000,-18.2163678740879
191100000,-18.2074423162537
191200000,-18.2117456156217
191300000,-18.2079646133662
191400000,-18.2041836111107
191500000,-18.2011375453664
191600000,-18.2054408447344
191700000,-18.2023947789901
191800000,-18.1927342846447
191900000,-18.1918930284341
192000000,-18.1998710103582
192100000,-18.1990297541476
192200000,-18.2040679900269
192300000,-18.1936725591702
192400000,-18.1906264934259
192500000,-18.1978695388389
192600000,-18.1874741079822
192700000,-18.1792834866593
192800000,-18.1784422304487
192900000,-18.183480466328
193000000,-18.1767597180275
193100000,-18.1781232713506
193200000,-18.1750772056062
193300000,-18.1801154414855
193400000,-18.1844187408535
193500000,-18.1813726751092
193600000,-18.1797964823873
193700000,-18.176750416643
193800000,-18.1692947318314
193900000,-18.1574294279523
194000000,-18.1624676638315
194100000,-18.1697107092444
194200000,-18.1747489451237
194300000,-18.1650884507783
194400000,-18.162042385034
194500000,-18.1670806209132
194600000,-18.1596249361015
194700000,-18.1565788703572
194800000,-18.1586773601915
194900000,-18.154896357936
195000000,-18.1540551017254
195100000,-18.1486145079767
195200000,-18.1578726444525
195300000,-18.1553717967487
195400000,-18.1433167743989
195500000,-18.1415508632063
195600000,-18.1449295075923
195700000,-18.1453684059335
195800000,-18.1428675582297
195900000,-18.1374269644809
196000000,-18.1518296565354
196100000,-18.1265457769835
196200000,-18.1505026436839
196300000,-18.1502066055138
196400000,-18.1484406943212
196500000,-18.1459398466174
196600000,-18.1434389989136
196700000,-18.1460827067884
196800000,-18.1406421130397
196900000,-18.1388762018471
197000000,-18.1473994018117
197100000,-18.1448985541079
197200000,-18.1431326429154
197300000,-18.1457763507902
197400000,-18.1432755030864
197500000,-18.132690353759
197600000,-18.1323943155889
197700000,-18.1335681504412
197800000,-18.1369467948273
197900000,-18.139590502702
198000000,-18.1400294010432
198100000,-18.1412032358955
198200000,-18.1438469437703
198300000,-18.1413460960665
198400000,-18.1476644864975
198500000,-18.14295882926
198600000,-18.1309038069102
198700000,-18.1320776417625
198800000,-18.1325165401036
198900000,-18.1417746765795
199000000,-18.1333943367858
199100000,-18.130893489082
199200000,-18.1335371969568
199300000,-18.1398555873878
199400000,-18.1351499301503
199500000,-18.1289743998903
199600000,-18.1272084886977
199700000,-18.1305871330838
199800000,-18.1369055235147
199900000,-18.1424889774344
200000000,-18.1377833201969
